Wavelength(nm)	n	k
325	1.59097	0
330	1.58935	0
335	1.58781	0
340	1.58636	0
345	1.58498	0
350	1.58368	0
355	1.58243	0
360	1.58125	0
365	1.58012	0
370	1.57904	0
375	1.57802	0
380	1.57703	0
385	1.5761	0
390	1.5752	0
395	1.57434	0
400	1.57351	0
405	1.57272	0
410	1.57196	0
415	1.57123	0
420	1.57053	0
425	1.56986	0
430	1.56921	0
435	1.56858	0
440	1.56798	0
445	1.5674	0
450	1.56684	0
455	1.5663	0
460	1.56577	0
465	1.56527	0
470	1.56478	0
475	1.56431	0
480	1.56385	0
485	1.56341	0
490	1.56298	0
495	1.56257	0
500	1.56217	0
505	1.56178	0
510	1.5614	0
515	1.56103	0
520	1.56068	0
525	1.56033	0
530	1.55999	0
535	1.55967	0
540	1.55935	0
545	1.55904	0
550	1.55874	0
555	1.55844	0
560	1.55816	0
565	1.55788	0
570	1.55761	0
575	1.55735	0
580	1.55709	0
585	1.55684	0
590	1.55659	0
595	1.55635	0
600	1.55612	0
605	1.55589	0
610	1.55567	0
615	1.55545	0
620	1.55524	0
625	1.55503	0
630	1.55483	0
635	1.55463	0
640	1.55443	0
645	1.55424	0
650	1.55405	0
655	1.55387	0
660	1.55369	0
665	1.55352	0
670	1.55334	0
675	1.55318	0
680	1.55301	0
685	1.55285	0
690	1.55269	0
695	1.55253	0
700	1.55238	0
705	1.55223	0
710	1.55208	0
715	1.55193	0
720	1.55179	0
725	1.55165	0
730	1.55151	0
735	1.55138	0
740	1.55124	0
745	1.55111	0
750	1.55098	0
755	1.55086	0
760	1.55073	0
765	1.55061	0
770	1.55049	0
775	1.55037	0
780	1.55025	0
785	1.55013	0
790	1.55002	0
795	1.54991	0
800	1.54979	0
805	1.54968	0
810	1.54958	0
815	1.54947	0
820	1.54936	0
825	1.54926	0
830	1.54916	0
835	1.54906	0
840	1.54896	0
845	1.54886	0
850	1.54876	0
855	1.54866	0
860	1.54857	0
865	1.54847	0
870	1.54838	0
875	1.54829	0
880	1.5482	0
885	1.5481	0
890	1.54802	0
895	1.54793	0
900	1.54784	0
905	1.54775	0
910	1.54767	0
915	1.54758	0
920	1.5475	0
925	1.54741	0
930	1.54733	0
935	1.54725	0
940	1.54717	0
945	1.54709	0
950	1.54701	0
955	1.54693	0
960	1.54685	0
965	1.54677	0
970	1.5467	0
975	1.54662	0
980	1.54654	0
985	1.54647	0
990	1.54639	0
995	1.54632	0
1000	1.54624	0
1005	1.54617	0
1010	1.5461	0
1015	1.54603	0
1020	1.54595	0
1025	1.54588	0
1030	1.54581	0
1035	1.54574	0
1040	1.54567	0
1045	1.5456	0
1050	1.54553	0
1055	1.54546	0
1060	1.5454	0
1065	1.54533	0
1070	1.54526	0
1075	1.54519	0
1080	1.54513	0
1085	1.54506	0
1090	1.54499	0
1095	1.54493	0
1100	1.54486	0
1105	1.54479	0
1110	1.54473	0
1115	1.54466	0
1120	1.5446	0
1125	1.54453	0
1130	1.54447	0
1135	1.54441	0
1140	1.54434	0
1145	1.54428	0
1150	1.54422	0
1155	1.54415	0
1160	1.54409	0
1165	1.54403	0
1170	1.54396	0
1175	1.5439	0
1180	1.54384	0
1185	1.54378	0
1190	1.54372	0
1195	1.54366	0
1200	1.54359	0
1205	1.54353	0
1210	1.54347	0
1215	1.54341	0
1220	1.54335	0
1225	1.54329	0
1230	1.54323	0
1235	1.54317	0
1240	1.54311	0
1245	1.54305	0
1250	1.54299	0
1255	1.54293	0
1260	1.54287	0
1265	1.54281	0
1270	1.54275	0
1275	1.54269	0
1280	1.54263	0
1285	1.54257	0
1290	1.54251	0
1295	1.54245	0
1300	1.54239	0
1305	1.54233	0
1310	1.54227	0
1315	1.54221	0
1320	1.54215	0
1325	1.54209	0
1330	1.54203	0
1335	1.54197	0
1340	1.54192	0
1345	1.54186	0
1350	1.5418	0
1355	1.54174	0
1360	1.54168	0
1365	1.54162	0
1370	1.54156	0
1375	1.5415	0
1380	1.54144	0
1385	1.54138	0
1390	1.54133	0
1395	1.54127	0
1400	1.54121	0
1405	1.54115	0
1410	1.54109	0
1415	1.54103	0
1420	1.54097	0
1425	1.54091	0
1430	1.54085	0
1435	1.54079	0
1440	1.54073	0
1445	1.54068	0
1450	1.54062	0
1455	1.54056	0
1460	1.5405	0
1465	1.54044	0
1470	1.54038	0
1475	1.54032	0
1480	1.54026	0
1485	1.5402	0
1490	1.54014	0
1495	1.54008	0
1500	1.54002	0
1505	1.53996	0
1510	1.5399	0
1515	1.53984	0
1520	1.53978	0
1525	1.53972	0
1530	1.53966	0
1535	1.5396	0
1540	1.53954	0
1545	1.53948	0
1550	1.53942	0
1555	1.53936	0
1560	1.5393	0
1565	1.53924	0
1570	1.53918	0
1575	1.53912	0
1580	1.53906	0
1585	1.539	0
1590	1.53894	0
1595	1.53887	0
1600	1.53881	0
1605	1.53875	0
1610	1.53869	0
1615	1.53863	0
1620	1.53857	0
1625	1.53851	0
1630	1.53844	0
1635	1.53838	0
1640	1.53832	0
1645	1.53826	0
1650	1.5382	0
1655	1.53813	0
1660	1.53807	0
1665	1.53801	0
1670	1.53795	0
1675	1.53788	0
1680	1.53782	0
1685	1.53776	0
1690	1.53769	0
1695	1.53763	0
1700	1.53757	0
1705	1.5375	0
1710	1.53744	0
1715	1.53737	0
1720	1.53731	0
1725	1.53725	0
1730	1.53718	0
1735	1.53712	0
1740	1.53705	0
1745	1.53699	0
1750	1.53692	0
1755	1.53686	0
1760	1.53679	0
1765	1.53673	0
1770	1.53666	0
1775	1.5366	0
1780	1.53653	0
1785	1.53647	0
1790	1.5364	0
1795	1.53633	0
1800	1.53627	0
1805	1.5362	0
1810	1.53614	0
1815	1.53607	0
1820	1.536	0
1825	1.53593	0
1830	1.53587	0
1835	1.5358	0
1840	1.53573	0
1845	1.53566	0
1850	1.5356	0
1855	1.53553	0
1860	1.53546	0
1865	1.53539	0
1870	1.53532	0
1875	1.53526	0
1880	1.53519	0
1885	1.53512	0
1890	1.53505	0
1895	1.53498	0
1900	1.53491	0
1905	1.53484	0
1910	1.53477	0
1915	1.5347	0
1920	1.53463	0
1925	1.53456	0
1930	1.53449	0
1935	1.53442	0
1940	1.53435	0
1945	1.53428	0
1950	1.5342	0
1955	1.53413	0
1960	1.53406	0
1965	1.53399	0
1970	1.53392	0
1975	1.53384	0
1980	1.53377	0
1985	1.5337	0
1990	1.53363	0
1995	1.53355	0
2000	1.53348	0
2005	1.53341	0
2010	1.53333	0
2015	1.53326	0
2020	1.53319	0
2025	1.53311	0
2030	1.53304	0
2035	1.53296	0
2040	1.53289	0
2045	1.53281	0
2050	1.53274	0
2055	1.53266	0
2060	1.53259	0
2065	1.53251	0
2070	1.53243	0
2075	1.53236	0
2080	1.53228	0
2085	1.5322	0
2090	1.53213	0
2095	1.53205	0
2100	1.53197	0
2105	1.5319	0
2110	1.53182	0
2115	1.53174	0
2120	1.53166	0
2125	1.53158	0
2130	1.5315	0
2135	1.53143	0
2140	1.53135	0
2145	1.53127	0
2150	1.53119	0
2155	1.53111	0
2160	1.53103	0
2165	1.53095	0
2170	1.53087	0
2175	1.53079	0
2180	1.53071	0
2185	1.53062	0
2190	1.53054	0
2195	1.53046	0
2200	1.53038	0
2205	1.5303	0
2210	1.53022	0
2215	1.53013	0
2220	1.53005	0
2225	1.52997	0
2230	1.52988	0
2235	1.5298	0
2240	1.52972	0
2245	1.52963	0
2250	1.52955	0
2255	1.52946	0
2260	1.52938	0
2265	1.52929	0
2270	1.52921	0
2275	1.52912	0
2280	1.52904	0
2285	1.52895	0
2290	1.52887	0
2295	1.52878	0
2300	1.52869	0
2305	1.5286	0
2310	1.52852	0
2315	1.52843	0
2320	1.52834	0
2325	1.52825	0
